#Acq. time (s)=	10
#Accumulations=	1
#Range (cm-¹)=	1300...1700
#Windows=	2
#Autofocus=	Off
#AutoExposure=	Off
#Spike filter=	Single accum. (Size=3)
#Delay time (s)=	0.1
#Binning=	1
#Readout mode=	Signal
#DeNoise=	Standard
#ICS correction=	On
#Dark correction=	Off
#Inst. Process=	Off
#Instrument=	LabRAM HR Evol
#Detector=	Synapse
#Objective=	x20SLWD
#Grating=	1800 gr/mm
#ND Filter=	100%
#Laser (nm)=	633 
#Hole=	150.001
#Range=	Visible
#Collection=	Microscope
#StageXY=	Marzhauser
#StageZ=	Marzhauser
#X (µm)=	0
#Y (µm)=	0
#Z (µm)=	0
#Project=	20190124
#Sample=	1-2
#Site=	
#Title=	D_82
#Remark=	
#Date=	19.05.2019 01:50
#Acquired=	19.05.2019 01:50:18
1300.13	76.488
1300.4	76.4772
1300.68	76.5898
1300.95	76.6231
1301.23	76.7633
1301.5	76.79
1301.78	76.9677
1302.05	77.1349
1302.32	77.3084
1302.6	77.4732
1302.87	77.6415
1303.15	77.8059
1303.42	77.9664
1303.69	78.123
1303.97	78.2962
1304.24	78.4492
1304.52	78.5798
1304.79	78.7179
1305.07	78.8493
1305.34	78.9549
1305.61	79.0711
1305.89	79.1798
1306.16	79.2805
1306.44	79.3509
1306.71	79.4362
1306.98	79.5373
1307.26	79.6007
1307.53	79.6998
1307.8	79.7212
1308.08	79.7112
1308.35	79.699
1308.63	79.6861
1308.9	79.6915
1309.17	79.6859
1309.45	79.6933
1309.72	79.6952
1310	79.7043
1310.27	79.7259
1310.54	79.7523
1310.82	79.8062
1311.09	79.8635
1311.36	79.941
1311.64	80.0442
1311.91	80.1808
1312.19	80.3349
1312.46	80.465
1312.73	80.7624
1313.01	81.0926
1313.28	81.512
1313.55	81.9718
1313.83	82.4362
1314.1	82.976
1314.37	83.4903
1314.65	84.0339
1314.92	84.5895
1315.19	85.1734
1315.47	85.76
1315.74	86.2341
1316.01	86.6902
1316.29	87.1186
1316.56	87.5453
1316.83	87.6709
1317.11	87.9353
1317.38	88.2028
1317.65	88.4674
1317.93	88.7296
1318.2	89.0201
1318.47	89.3317
1318.75	89.6696
1319.02	89.9987
1319.29	90.4344
1319.57	90.8355
1319.84	91.522
1320.11	91.9653
1320.39	92.5163
1320.66	93.0876
1320.93	93.7386
1321.2	94.4266
1321.48	95.208
1321.75	96.0609
1322.02	96.9815
1322.3	98.0128
1322.57	99.1079
1322.84	100.338
1323.11	101.683
1323.39	103.193
1323.66	104.856
1323.93	106.68
1324.21	108.615
1324.48	110.74
1324.75	112.925
1325.02	115.284
1325.3	117.792
1325.57	120.439
1325.84	123.209
1326.11	126.182
1326.39	129.321
1326.66	134.052
1326.93	139.145
1327.2	144.958
1327.48	151.506
1327.75	158.78
1328.02	166.816
1328.3	175.978
1328.57	185.69
1328.84	197.508
1329.11	210.312
1329.38	223.286
1329.66	239.442
1329.93	275.384
1330.2	306.092
1330.47	343.357
1330.75	391.902
1331.02	448.202
1331.29	513.094
1331.56	594.154
1331.84	680.111
1332.11	784.416
1332.38	887.954
1332.65	1012.19
1332.93	1123.25
1333.2	1223.46
1333.47	1280.28
1333.74	1307.91
1334.01	1332.76
1334.29	1338.98
1334.56	1312.91
1334.83	1277.49
1335.1	1270.97
1335.37	1241.81
1335.65	1205.65
1335.92	1162.11
1336.19	1130.17
1336.46	1098.03
1336.73	1070.27
1337.01	1043.47
1337.28	1018.28
1337.55	992.985
1337.82	968.401
1338.09	944.574
1338.36	921.818
1338.64	900.279
1338.91	879.909
1339.18	860.979
1339.45	843.253
1339.72	828.173
1340	813.729
1340.27	800.208
1340.54	787.031
1340.81	774.093
1341.08	760.833
1341.35	748.139
1341.63	736.147
1341.9	724.717
1342.17	713.724
1342.44	702.977
1342.71	692.018
1342.98	680.527
1343.26	669.519
1343.53	658.783
1343.8	648.309
1344.07	638.05
1344.34	628.155
1344.61	618.631
1344.88	609.55
1345.15	601.005
1345.43	592.971
1345.7	585.34
1345.97	578.318
1346.24	571.854
1346.51	564.425
1346.78	558.192
1347.05	552.333
1347.32	546.7
1347.6	541.005
1347.87	535.305
1348.14	529.594
1348.41	523.89
1348.68	518.213
1348.95	512.534
1349.22	506.893
1349.49	501.301
1349.77	495.77
1350.04	490.294
1350.31	484.868
1350.58	479.5
1350.85	474.19
1351.12	468.941
1351.39	463.788
1351.66	458.678
1351.93	453.559
1352.2	448.486
1352.48	443.389
1352.75	438.389
1353.02	433.464
1353.29	428.639
1353.56	423.933
1353.83	419.354
1354.1	414.939
1354.37	410.949
1354.64	407.191
1354.91	403.738
1355.18	400.397
1355.45	397.33
1355.72	394.89
1355.99	392.637
1356.26	390.508
1356.54	388.356
1356.81	385.779
1357.08	383.224
1357.35	380.002
1357.62	376.647
1357.89	373.151
1358.16	369.573
1358.43	365.96
1358.7	362.273
1358.97	358.608
1359.24	355.096
1359.51	351.658
1359.78	348.295
1360.05	345.008
1360.32	341.795
1360.59	338.665
1360.86	335.626
1361.13	332.674
1361.4	329.837
1361.67	327.071
1361.94	324.699
1362.21	322.422
1362.48	320.246
1362.75	318.136
1363.02	316.08
1363.29	314.066
1363.56	312.092
1363.83	310.124
1364.1	308.15
1364.37	306.161
1364.64	304.138
1364.91	301.888
1365.18	299.576
1365.45	297.067
1365.72	294.577
1365.99	292.104
1366.26	289.651
1366.53	287.243
1366.8	284.879
1367.07	282.612
1367.34	280.789
1367.61	279.059
1367.88	277.586
1368.15	276.134
1368.42	275.235
1368.69	274.526
1368.96	273.933
1369.23	273.369
1369.5	272.892
1369.77	272.055
1370.04	270.958
1370.31	269.9
1370.58	268.669
1370.85	267.418
1371.12	266.13
1371.39	264.823
1371.66	263.535
1371.93	262.241
1372.2	260.97
1372.47	259.699
1372.74	258.588
1373.01	257.494
1373.28	256.165
1373.55	254.776
1373.81	253.126
1374.08	251.694
1374.35	250.924
1374.62	249.81
1374.89	247.967
1375.16	245.901
1375.43	243.713
1375.7	241.434
1375.97	239.302
1376.24	237.303
1376.51	235.446
1376.78	233.679
1377.05	232.293
1377.31	231.224
1377.58	230.424
1377.85	229.441
1378.12	228.731
1378.39	228.342
1378.66	229.031
1378.93	228.475
1379.2	227.645
1379.47	226.767
1379.74	225.892
1380.01	225.021
1380.27	224.167
1380.54	223.335
1380.81	222.497
1381.08	221.695
1381.35	220.847
1381.62	219.986
1381.89	219.088
1382.16	218.159
1382.43	217.209
1382.69	216.236
1382.96	215.244
1383.23	214.227
1383.5	213.259
1383.77	212.25
1384.04	211.155
1384.31	210.047
1384.58	208.95
1384.84	207.866
1385.11	206.819
1385.38	205.821
1385.65	204.913
1385.92	204.074
1386.19	203.292
1386.46	202.588
1386.72	202.574
1386.99	202.45
1387.26	202.432
1387.53	202.332
1387.8	202.18
1388.07	201.931
1388.34	201.482
1388.6	200.313
1388.87	199.203
1389.14	197.853
1389.41	196.409
1389.68	194.898
1389.94	193.332
1390.21	191.743
1390.48	190.21
1390.75	188.688
1391.02	187.183
1391.29	185.983
1391.55	185.062
1391.82	184.996
1392.09	184.985
1392.36	184.975
1392.63	184.989
1392.9	184.854
1393.16	184.692
1393.43	184.454
1393.7	184.132
1393.97	183.717
1394.23	183.236
1394.5	182.699
1394.77	182.135
1395.04	181.555
1395.31	180.951
1395.58	180.331
1395.84	179.688
1396.11	178.979
1396.38	178.241
1396.65	177.33
1396.91	176.414
1397.18	175.442
1397.45	175.056
1397.72	175.308
1397.99	175.338
1398.25	175.223
1398.52	175.04
1398.79	174.781
1399.06	174.468
1399.32	174.091
1399.59	173.639
1399.86	173.125
1400.13	172.416
1400.39	171.711
1400.66	170.977
1400.93	170.244
1401.2	169.515
1401.46	168.797
1401.73	168.173
1402	167.559
1402.27	167.149
1402.53	167.421
1402.8	167.641
1403.07	167.956
1403.34	168.103
1403.6	168.119
1403.87	167.489
1404.14	167.102
1404.41	166.656
1404.67	166.24
1404.94	165.753
1405.21	165.126
1405.48	164.392
1405.74	163.47
1406.01	162.377
1406.28	161.336
1406.54	160.558
1406.81	161.019
1407.08	160.653
1407.34	160.149
1407.61	159.486
1407.88	158.875
1408.15	158.11
1408.41	157.399
1408.68	156.609
1408.95	155.744
1409.21	154.819
1409.48	153.955
1409.75	153.192
1410.01	152.692
1410.28	152.41
1410.55	152.375
1410.82	152.762
1411.08	153.02
1411.35	153.041
1411.62	153.071
1411.88	153.16
1412.15	153.734
1412.42	154.746
1412.68	155.669
1412.95	156.189
1413.22	156.283
1413.48	155.978
1413.75	155.257
1414.02	153.997
1414.28	152.929
1414.55	151.999
1414.82	151.231
1415.08	150.448
1415.35	150.326
1415.62	150.27
1415.88	150.271
1416.15	150.321
1416.42	150.384
1416.68	150.427
1416.95	150.434
1417.21	150.256
1417.48	150.091
1417.75	149.844
1418.01	149.236
1418.28	148.6
1418.55	147.941
1418.81	147.285
1419.08	146.639
1419.34	146
1419.61	145.393
1419.88	144.815
1420.14	144.307
1420.41	143.804
1420.68	143.591
1420.94	143.415
1421.21	143.39
1421.47	143.514
1421.74	143.709
1422.01	144.075
1422.27	144.429
1422.54	144.772
1422.81	145.099
1423.07	145.376
1423.34	145.608
1423.6	145.733
1423.87	145.123
1424.14	144.538
1424.4	143.771
1424.67	142.799
1424.93	141.611
1425.2	140.228
1425.46	138.771
1425.73	137.359
1426	136.044
1426.26	135.292
1426.53	134.987
1426.79	134.97
1427.06	134.948
1427.32	135.289
1427.59	135.685
1427.86	136.068
1428.12	136.43
1428.39	136.759
1428.65	137.049
1428.92	137.306
1429.18	137.518
1429.45	137.69
1429.72	137.808
1429.98	137.886
1430.25	137.9
1430.51	137.837
1430.78	137.634
1431.04	137.373
1431.31	137.085
1431.57	136.681
1431.84	136.244
1432.1	135.781
1432.37	135.272
1432.64	134.658
1432.9	134.026
1433.17	133.391
1433.43	132.757
1433.7	132.128
1433.96	131.497
1434.23	130.885
1434.49	130.289
1434.76	129.783
1435.02	129.693
1435.29	129.499
1435.55	129.445
1435.82	129.468
1436.08	129.633
1436.35	129.813
1436.61	130.045
1436.88	130.291
1437.14	130.618
1437.41	130.888
1437.67	131.128
1437.94	131.379
1438.2	131.434
1438.47	131.247
1438.73	131.083
1439	130.88
1439.26	130.63
1439.53	130.345
1439.79	130.06
1440.06	129.782
1440.32	129.526
1440.59	129.279
1440.85	129.064
1441.12	128.841
1441.38	128.799
1441.65	128.852
1441.91	128.825
1442.18	128.876
1442.44	128.932
1442.71	128.986
1442.97	129.013
1443.23	129.014
1443.5	128.992
1443.76	128.924
1444.03	128.808
1444.29	128.618
1444.56	128.019
1444.82	127.408
1445.09	126.742
1445.35	126.049
1445.61	125.132
1445.88	124.879
1446.14	124.679
1446.41	124.903
1446.67	124.947
1446.94	124.975
1447.2	124.978
1447.47	124.949
1447.73	124.899
1447.99	124.824
1448.26	124.724
1448.52	124.589
1448.79	124.415
1449.05	124.2
1449.32	123.929
1449.58	123.615
1449.84	123.258
1450.11	122.844
1450.37	122.394
1450.64	121.914
1450.9	121.418
1451.16	120.923
1451.43	120.42
1451.69	119.95
1451.96	119.286
1452.22	118.631
1452.48	118.007
1452.75	117.43
1453.01	116.881
1453.28	116.584
1453.54	116.901
1453.8	117.362
1454.07	117.875
1454.33	118.407
1454.6	118.96
1454.86	119.51
1455.12	120.028
1455.39	120.534
1455.65	120.901
1455.91	121.191
1456.18	121.347
1456.44	121.518
1456.71	121.527
1456.97	121.556
1457.23	121.238
1457.5	120.815
1457.76	120.355
1458.02	119.862
1458.29	119.338
1458.55	118.809
1458.81	118.277
1459.08	117.777
1459.34	117.475
1459.61	117.139
1459.87	116.817
1460.13	116.58
1460.4	116.352
1460.66	116.351
1460.92	116.409
1461.19	116.516
1461.45	116.661
1461.71	116.79
1461.98	117.05
1462.24	117.2
1462.5	117.291
1462.77	117.504
1463.03	117.504
1463.29	117.504
1463.55	117.453
1463.82	117.131
1464.08	116.915
1464.35	116.657
1464.61	116.372
1464.87	116.212
1465.13	116.054
1465.4	115.91
1465.66	115.776
1465.92	115.664
1466.19	115.568
1466.45	115.704
1466.71	115.651
1466.98	115.781
1467.24	115.674
1467.5	115.534
1467.76	115.409
1468.03	115.261
1468.29	115.13
1468.55	114.982
1468.82	114.85
1469.08	114.711
1469.34	114.582
1469.6	114.458
1469.87	114.34
1470.13	114.239
1470.39	114.143
1470.66	114.074
1470.92	114.014
1471.18	113.984
1471.44	113.896
1471.71	113.946
1471.97	113.863
1472.23	114.032
1472.49	114.217
1472.76	114.403
1473.02	114.621
1473.28	114.813
1473.54	115.043
1473.81	115.225
1474.07	115.443
1474.33	115.63
1474.59	115.833
1474.86	116.033
1475.12	115.973
1475.38	115.494
1475.64	115.219
1475.91	114.881
1476.17	114.562
1476.43	114.166
1476.69	113.803
1476.96	113.432
1477.22	113.111
1477.48	112.776
1477.74	112.423
1478	112.015
1478.27	111.924
1478.53	112.093
1478.79	112.179
1479.05	112.288
1479.32	112.385
1479.58	112.524
1479.84	112.649
1480.1	112.777
1480.36	112.911
1480.63	113.012
1480.89	113.123
1481.15	113.205
1481.41	113.325
1481.67	113.406
1481.93	113.265
1482.2	113.211
1482.46	113.163
1482.72	112.962
1482.98	112.749
1483.25	112.521
1483.51	112.277
1483.77	112.039
1484.03	111.781
1484.29	111.525
1484.55	111.263
1484.82	110.982
1485.08	110.727
1485.34	110.459
1485.6	110.219
1485.86	109.96
1486.12	109.716
1486.39	109.477
1486.65	109.293
1486.91	109.08
1487.17	108.909
1487.43	108.84
1487.69	108.81
1487.96	108.832
1488.22	108.69
1488.48	108.737
1488.74	108.752
1489	108.82
1489.26	108.882
1489.52	108.946
1489.78	109.037
1490.05	109.115
1490.31	109.201
1490.57	109.287
1490.83	109.368
1491.09	109.445
1491.35	109.525
1491.61	109.585
1491.88	109.654
1492.14	109.69
1492.4	109.742
1492.66	109.746
1492.92	109.791
1493.18	109.767
1493.44	109.559
1493.7	109.56
1493.96	109.224
1494.23	108.892
1494.49	108.507
1494.75	108.13
1495.01	107.697
1495.27	107.305
1495.53	106.927
1495.79	106.559
1496.05	106.196
1496.31	105.845
1496.57	105.53
1496.84	105.231
1497.1	105.043
1497.36	105.371
1497.62	105.399
1497.88	105.516
1498.14	105.85
1498.4	106.237
1498.66	106.63
1498.92	107.025
1499.18	107.442
1499.44	107.845
1499.7	108.257
1499.97	108.664
1500.23	109.043
1500.49	109.407
1500.75	109.705
1501.01	109.71
1501.27	109.768
1501.53	109.746
1501.79	109.68
1502.05	109.657
1502.31	109.282
1502.57	108.902
1502.83	108.523
1503.09	108.1
1503.35	107.678
1503.61	107.255
1503.87	106.835
1504.13	106.408
1504.39	106.007
1504.65	105.593
1504.91	105.223
1505.18	105.022
1505.44	104.78
1505.7	104.572
1505.96	104.402
1506.22	104.268
1506.48	104.164
1506.74	104.098
1507	104.048
1507.26	104.03
1507.52	104.013
1507.78	104.039
1508.04	104.065
1508.3	104.13
1508.56	104.195
1508.82	104.301
1509.08	104.408
1509.34	104.553
1509.6	104.706
1509.86	104.893
1510.12	105.095
1510.38	105.328
1510.64	105.589
1510.9	105.878
1511.16	106.205
1511.42	106.564
1511.68	106.957
1511.94	107.37
1512.2	106.471
1512.46	98.996
1512.72	103.8
1512.98	103.497
1513.24	103.052
1513.5	102.797
1513.76	102.902
1514.02	103.029
1514.27	103.484
1514.53	103.988
1514.79	104.435
1515.05	104.775
1515.31	105.034
1515.57	105.21
1515.83	105.196
1516.09	104.991
1516.35	104.604
1516.61	104.255
1516.87	103.897
1517.13	103.51
1517.39	103.264
1517.65	102.999
1517.91	102.855
1518.17	102.824
1518.43	102.875
1518.69	103.254
1518.95	103.631
1519.21	104.01
1519.46	104.435
1519.72	104.839
1519.98	105.166
1520.24	105.42
1520.5	105.328
1520.76	105.08
1521.02	104.589
1521.28	104.092
1521.54	103.588
1521.8	103.091
1522.06	102.631
1522.32	102.161
1522.58	101.789
1522.83	101.649
1523.09	101.733
1523.35	101.871
1523.61	102.058
1523.87	102.272
1524.13	102.521
1524.39	102.709
1524.65	102.918
1524.91	103.248
1525.17	103.145
1525.42	102.813
1525.68	102.36
1525.94	102.025
1526.2	101.56
1526.46	101.109
1526.72	100.821
1526.98	100.48
1527.24	100.284
1527.5	100.152
1527.75	100.285
1528.01	100.461
1528.27	100.664
1528.53	100.897
1528.79	101.165
1529.05	101.462
1529.31	101.767
1529.56	102.085
1529.82	102.323
1530.08	102.712
1530.34	103.056
1530.6	103.361
1530.86	103.633
1531.12	103.865
1531.37	104.035
1531.63	104.174
1531.89	104.156
1532.15	104.097
1532.41	103.972
1532.67	103.449
1532.92	102.853
1533.18	102.069
1533.44	101.347
1533.7	100.627
1533.96	99.9215
1534.22	99.3094
1534.47	98.4813
1534.73	98.1657
1534.99	98.2036
1535.25	98.2135
1535.51	98.3579
1535.77	98.4614
1536.02	98.603
1536.28	98.8149
1536.54	98.9238
1536.8	99.0468
1537.06	99.1611
1537.31	99.2516
1537.57	99.1283
1537.83	99.0478
1538.09	99.0096
1538.35	98.9947
1538.6	98.9468
1538.86	98.9993
1539.12	98.9266
1539.38	99.0796
1539.64	99.2483
1539.89	99.4536
1540.15	99.6396
1540.41	100.027
1540.67	100.226
1540.93	100.5
1541.18	100.854
1541.44	100.957
1541.7	101.013
1541.96	101.071
1542.21	100.875
1542.47	100.726
1542.73	100.618
1542.99	100.544
1543.25	100.502
1543.5	100.487
1543.76	100.483
1544.02	100.502
1544.28	100.534
1544.53	100.629
1544.79	100.904
1545.05	101.152
1545.31	101.451
1545.56	101.761
1545.82	102.05
1546.08	102.309
1546.34	102.532
1546.59	102.7
1546.85	102.828
1547.11	102.921
1547.37	102.978
1547.62	102.84
1547.88	102.747
1548.14	102.589
1548.39	102.2
1548.65	101.809
1548.91	101.401
1549.17	100.993
1549.42	100.599
1549.68	100.226
1549.94	99.8858
1550.2	99.5683
1550.45	99.3096
1550.71	99.1775
1550.97	99.0496
1551.22	99.0482
1551.48	99.0917
1551.74	99.1993
1552	99.3706
1552.25	99.6031
1552.51	99.8881
1552.77	100.258
1553.02	100.651
1553.28	100.995
1553.54	101.286
1553.79	101.622
1554.05	101.947
1554.31	102.316
1554.56	102.58
1554.82	102.821
1555.08	102.699
1555.33	101.921
1555.59	101.628
1555.85	101.572
1556.11	101.633
1556.36	101.865
1556.62	102.286
1556.88	102.672
1557.13	103.153
1557.39	103.778
1557.65	104.525
1557.9	105.102
1558.16	105.332
1558.42	105.408
1558.67	105.453
1558.93	105.605
1559.19	105.58
1559.44	105.44
1559.7	105.26
1559.95	105.06
1560.21	104.737
1560.47	104.532
1560.72	104.52
1560.98	104.569
1561.24	104.551
1561.49	104.662
1561.75	104.871
1562.01	104.998
1562.26	105.222
1562.52	105.534
1562.78	105.879
1563.03	105.946
1563.29	106.062
1563.54	106.196
1563.8	106.289
1564.06	106.457
1564.31	106.493
1564.57	106.425
1564.82	106.252
1565.08	106.137
1565.34	106.137
1565.59	106.286
1565.85	106.477
1566.11	106.55
1566.36	106.555
1566.62	106.538
1566.87	106.59
1567.13	106.676
1567.39	106.757
1567.64	106.947
1567.9	107.232
1568.15	107.521
1568.41	107.864
1568.66	108.205
1568.92	108.393
1569.18	108.559
1569.43	108.741
1569.69	108.897
1569.94	109.078
1570.2	109.283
1570.46	109.687
1570.67	109.949
1570.93	110.394
1571.19	110.441
1571.45	110.224
1571.71	110.128
1571.97	110.135
1572.23	110.481
1572.49	110.63
1572.75	110.666
1573.01	110.781
1573.27	110.817
1573.53	110.869
1573.79	110.869
1574.05	110.978
1574.31	110.988
1574.57	110.88
1574.83	111
1575.09	110.896
1575.35	110.722
1575.61	110.431
1575.87	110.129
1576.13	109.706
1576.38	109.107
1576.64	109.171
1576.9	109.539
1577.16	109.873
1577.42	110.16
1577.68	110.064
1577.94	110.198
1578.2	110.529
1578.46	110.979
1578.72	111.623
1578.98	112.946
1579.24	113.385
1579.5	113.656
1579.76	113.939
1580.02	114.535
1580.28	115.071
1580.54	115.711
1580.8	116.23
1581.05	116.933
1581.31	117.066
1581.57	117.194
1581.83	117.358
1582.09	117.014
1582.35	116.693
1582.61	116.077
1582.87	115.124
1583.13	114.304
1583.39	113.338
1583.65	112.365
1583.91	111.193
1584.17	109.574
1584.42	107.637
1584.68	105.332
1584.94	102.885
1585.2	100.63
1585.46	98.3559
1585.72	96.0179
1585.98	93.6982
1586.24	91.3361
1586.5	88.8432
1586.75	86.5527
1587.01	84.4654
1587.27	82.5433
1587.53	80.5323
1587.79	78.8865
1588.05	77.6355
1588.31	76.5027
1588.57	75.5371
1588.83	74.897
1589.08	74.3549
1589.34	73.5253
1589.6	72.7583
1589.86	72.0313
1590.12	71.2469
1590.38	70.4342
1590.64	69.5801
1590.9	69.1165
1591.15	68.4725
1591.41	67.8968
1591.67	67.4582
1591.93	67.3137
1592.19	67.0834
1592.45	66.9749
1592.7	66.6466
1592.96	66.3587
1593.22	65.9943
1593.48	65.8159
1593.74	65.6751
1594	65.4803
1594.26	65.2718
1594.51	65.0193
1594.77	65.0605
1595.03	64.9552
1595.29	64.945
1595.55	65.122
1595.81	65.2142
1596.06	65.3345
1596.32	65.3804
1596.58	65.2356
1596.84	65.2452
1597.1	65.1542
1597.36	65.358
1597.61	65.4463
1597.87	65.1259
1598.13	64.8123
1598.39	64.5077
1598.65	64.238
1598.9	63.8917
1599.16	63.6496
1599.42	63.584
1599.68	63.5899
1599.94	63.6095
1600.19	63.7114
1600.45	63.9403
1600.71	64.3043
1600.97	64.7861
1601.23	65.0261
1601.48	65.2533
1601.74	65.2753
1602	65.4507
1602.26	65.5633
1602.52	65.7331
1602.77	65.7643
1603.03	65.6421
1603.29	65.4935
1603.55	65.3484
1603.8	64.9714
1604.06	64.9082
1604.32	64.581
1604.58	64.1
1604.83	63.7049
